File............:   - APR,29.2017

System..........:  
Temperature.....:  unknown
Time............:  19:30:18-19:33:34
Scan mode.......:   10mV/s
Comment.........:  
                   
                   
                   
                   
Electr.area/sqcm:  
                    
Steady state current/voltage diagramm

Lines:   190
Columns: 3

Number    Time/s    Potential/V   Current/A 
1             0.0       1.056      1.108e-01
2             1.1       1.051      1.230e-01
3             2.1       1.041      1.192e-01
4             3.1       1.031      1.137e-01
5             4.1       1.021      1.023e-01
6             5.1       1.011      8.465e-02
7             6.1       1.001      6.313e-02
8             7.1       0.991      5.938e-02
9             8.1       0.981      4.942e-02
10            9.1       0.971      4.098e-02
11           10.1       0.961      2.306e-02
12           11.1       0.951      8.799e-03
13           12.1       0.941     -7.162e-03
14           13.1       0.931     -1.335e-02
15           14.1       0.921     -2.201e-02
16           15.8       0.904     -3.724e-02
17           16.8       0.894     -5.307e-02
18           17.8       0.884     -6.290e-02
19           18.8       0.874     -7.786e-02
20           19.8       0.864     -8.712e-02
21           20.8       0.854     -9.590e-02
22           21.8       0.844     -1.036e-01
23           22.8       0.834     -1.142e-01
24           23.8       0.824     -1.263e-01
25           24.8       0.814     -1.325e-01
26           25.8       0.804     -1.402e-01
27           26.8       0.794     -1.515e-01
28           27.8       0.784     -1.595e-01
29           28.8       0.774     -1.702e-01
30           29.8       0.764     -1.815e-01
31           30.8       0.754     -1.921e-01
32           31.8       0.744     -2.021e-01
33           32.8       0.734     -2.149e-01
34           33.8       0.724     -2.267e-01
35           34.8       0.714     -2.362e-01
36           35.8       0.704     -2.462e-01
37           36.8       0.694     -2.558e-01
38           37.8       0.684     -2.651e-01
39           38.8       0.674     -2.758e-01
40           39.8       0.664     -2.848e-01
41           40.8       0.654     -2.960e-01
42           41.8       0.644     -3.060e-01
43           42.8       0.634     -3.130e-01
44           43.8       0.624     -3.264e-01
45           44.8       0.614     -3.360e-01
46           45.8       0.604     -3.482e-01
47           46.8       0.594     -3.588e-01
48           47.8       0.584     -3.725e-01
49           48.8       0.574     -3.834e-01
50           49.8       0.564     -3.951e-01
51           50.8       0.554     -4.065e-01
52           51.8       0.544     -4.196e-01
53           52.8       0.534     -4.302e-01
54           53.8       0.524     -4.436e-01
55           54.8       0.514     -4.553e-01
56           55.8       0.504     -4.691e-01
57           56.8       0.494     -4.810e-01
58           57.8       0.484     -4.942e-01
59           58.8       0.474     -5.052e-01
60           59.8       0.464     -5.203e-01
61           60.8       0.454     -5.339e-01
62           61.8       0.444     -5.492e-01
63           62.8       0.434     -5.618e-01
64           63.8       0.424     -5.751e-01
65           64.8       0.414     -5.898e-01
66           65.8       0.404     -6.019e-01
67           66.8       0.394     -6.180e-01
68           67.8       0.384     -6.313e-01
69           68.8       0.374     -6.441e-01
70           69.8       0.364     -6.594e-01
71           70.8       0.354     -6.737e-01
72           71.8       0.344     -6.894e-01
73           72.8       0.334     -7.056e-01
74           73.8       0.324     -7.201e-01
75           74.8       0.314     -7.349e-01
76           75.8       0.304     -7.499e-01
77           76.8       0.294     -7.667e-01
78           77.8       0.284     -7.816e-01
79           78.8       0.274     -7.991e-01
80           79.8       0.264     -8.140e-01
81           80.8       0.254     -8.308e-01
82           81.8       0.244     -8.478e-01
83           82.8       0.234     -8.642e-01
84           83.8       0.224     -8.815e-01
85           84.8       0.214     -8.974e-01
86           85.8       0.204     -9.140e-01
87           86.8       0.194     -9.295e-01
88           87.8       0.184     -9.466e-01
89           88.8       0.174     -9.632e-01
90           89.8       0.164     -9.786e-01
91           90.8       0.154     -9.977e-01
92           91.8       0.144     -1.013e+00
93           92.8       0.134     -1.029e+00
94           93.8       0.124     -1.046e+00
95           94.8       0.114     -1.063e+00
96           95.8       0.104     -1.079e+00
97           96.8       0.094     -1.098e+00
98           97.8       0.084     -1.114e+00
99           98.8       0.074     -1.135e+00
100          99.8       0.064     -1.149e+00
101         100.8       0.054     -1.169e+00
102         101.8       0.044     -1.187e+00
103         102.8       0.034     -1.207e+00
104         103.8       0.024     -1.226e+00
105         104.8       0.014     -1.245e+00
106         105.8       0.004     -1.266e+00
107         106.8      -0.006     -1.285e+00
108         107.8      -0.015     -1.306e+00
109         108.8      -0.025     -1.325e+00
110         109.8      -0.035     -1.348e+00
111         110.8      -0.045     -1.370e+00
112         111.8      -0.055     -1.393e+00
113         112.8      -0.065     -1.414e+00
114         113.8      -0.075     -1.436e+00
115         114.8      -0.085     -1.460e+00
116         115.8      -0.095     -1.484e+00
117         116.8      -0.105     -1.510e+00
118         117.8      -0.115     -1.533e+00
119         118.8      -0.125     -1.561e+00
120         119.8      -0.135     -1.587e+00
121         121.2      -0.142     -1.607e+00
122         122.4      -0.149     -1.605e+00
123         123.4      -0.159     -1.650e+00
124         124.4      -0.169     -1.680e+00
125         125.4      -0.179     -1.710e+00
126         126.4      -0.189     -1.739e+00
127         127.4      -0.199     -1.768e+00
128         128.4      -0.209     -1.800e+00
129         129.4      -0.219     -1.832e+00
130         130.4      -0.229     -1.867e+00
131         131.4      -0.239     -1.899e+00
132         132.4      -0.249     -1.934e+00
133         133.4      -0.259     -1.964e+00
134         134.4      -0.269     -1.999e+00
135         135.4      -0.279     -2.030e+00
136         136.4      -0.289     -2.063e+00
137         137.4      -0.299     -2.096e+00
138         138.4      -0.309     -2.134e+00
139         139.4      -0.319     -2.171e+00
140         140.4      -0.329     -2.210e+00
141         141.4      -0.339     -2.250e+00
142         142.4      -0.349     -2.283e+00
143         143.4      -0.359     -2.321e+00
144         144.4      -0.369     -2.356e+00
145         145.4      -0.379     -2.393e+00
146         146.4      -0.389     -2.438e+00
147         147.4      -0.399     -2.479e+00
148         148.4      -0.409     -2.522e+00
149         148.4      -0.409     -2.522e+00
150         149.7      -0.404     -2.502e+00
151         150.7      -0.394     -2.493e+00
152         151.7      -0.384     -2.466e+00
153         152.7      -0.374     -2.441e+00
154         153.7      -0.364     -2.408e+00
155         154.7      -0.354     -2.375e+00
156         155.7      -0.344     -2.344e+00
157         156.7      -0.334     -2.314e+00
158         157.7      -0.324     -2.283e+00
159         158.7      -0.314     -2.245e+00
160         159.7      -0.304     -2.216e+00
161         160.7      -0.294     -2.182e+00
162         161.7      -0.284     -2.147e+00
163         162.7      -0.274     -2.114e+00
164         163.7      -0.264     -2.081e+00
165         164.7      -0.254     -2.046e+00
166         165.7      -0.244     -2.012e+00
167         166.7      -0.234     -1.985e+00
168         167.7      -0.224     -1.957e+00
169         168.7      -0.214     -1.923e+00
170         169.7      -0.204     -1.892e+00
171         170.7      -0.194     -1.858e+00
172         171.7      -0.184     -1.832e+00
173         172.7      -0.174     -1.798e+00
174         173.7      -0.164     -1.772e+00
175         174.7      -0.154     -1.742e+00
176         175.7      -0.144     -1.715e+00
177         176.7      -0.134     -1.686e+00
178         177.7      -0.124     -1.657e+00
179         178.7      -0.114     -1.629e+00
180         179.7      -0.104     -1.604e+00
181         180.7      -0.094     -1.577e+00
182         181.7      -0.084     -1.553e+00
183         182.7      -0.074     -1.530e+00
184         183.7      -0.064     -1.508e+00
185         184.7      -0.054     -1.485e+00
186         185.7      -0.044     -1.466e+00
187         186.7      -0.034     -1.443e+00
188         187.7      -0.024     -1.421e+00
189         188.7      -0.014     -1.404e+00
190         190.6      -0.004     -1.383e+00

