File............:   - APR,29.2017

System..........:  
Temperature.....:  unknown
Time............:  19:48:27-19:52:18
Scan mode.......:   10mV/s
Comment.........:  
                   
                   
                   
                   
Electr.area/sqcm:  
                    
Steady state current/voltage diagramm

Lines:   222
Columns: 3

Number    Time/s    Potential/V   Current/A 
1             0.0       1.986      2.551e+00
2             1.1       1.981      2.533e+00
3             1.1       1.981      2.533e+00
4             2.4       1.976      2.532e+00
5             3.4       1.966      2.545e+00
6             4.4       1.956      2.545e+00
7             5.4       1.946      2.544e+00
8             6.4       1.936      2.545e+00
9             7.4       1.926      2.544e+00
10            8.4       1.916      2.542e+00
11            9.4       1.906      2.543e+00
12           10.4       1.896      2.541e+00
13           11.4       1.886      2.542e+00
14           12.4       1.876      2.539e+00
15           13.4       1.866      2.538e+00
16           14.4       1.856      2.540e+00
17           15.4       1.846      2.538e+00
18           16.4       1.836      2.537e+00
19           17.4       1.826      2.539e+00
20           18.4       1.816      2.539e+00
21           19.4       1.806      2.536e+00
22           20.4       1.796      2.534e+00
23           21.4       1.786      2.537e+00
24           22.4       1.776      2.534e+00
25           23.4       1.766      2.535e+00
26           24.4       1.756      2.533e+00
27           25.4       1.746      2.533e+00
28           26.4       1.736      2.531e+00
29           27.4       1.726      2.531e+00
30           28.4       1.716      2.531e+00
31           29.4       1.706      2.530e+00
32           30.4       1.696      2.532e+00
33           31.4       1.686      2.530e+00
34           32.4       1.676      2.529e+00
35           33.4       1.666      2.530e+00
36           34.4       1.656      2.529e+00
37           35.4       1.646      2.527e+00
38           36.4       1.636      2.528e+00
39           37.4       1.626      2.526e+00
40           38.4       1.616      2.527e+00
41           39.4       1.606      2.526e+00
42           40.4       1.596      2.526e+00
43           41.4       1.586      2.524e+00
44           42.4       1.576      2.525e+00
45           43.4       1.566      2.526e+00
46           44.4       1.556      2.524e+00
47           45.4       1.546      2.525e+00
48           46.4       1.536      2.522e+00
49           47.4       1.526      2.522e+00
50           48.4       1.516      2.524e+00
51           49.4       1.506      2.521e+00
52           50.4       1.496      2.522e+00
53           51.4       1.486      2.521e+00
54           52.4       1.476      2.521e+00
55           53.4       1.466      2.520e+00
56           54.4       1.456      2.521e+00
57           55.4       1.446      2.519e+00
58           56.4       1.436      2.520e+00
59           57.4       1.426      2.519e+00
60           58.4       1.416      2.519e+00
61           59.4       1.406      2.518e+00
62           60.4       1.396      2.517e+00
63           61.4       1.386      2.516e+00
64           62.4       1.376      2.515e+00
65           63.4       1.366      2.516e+00
66           64.4       1.356      2.514e+00
67           65.4       1.346      2.516e+00
68           66.4       1.336      2.515e+00
69           67.4       1.326      2.515e+00
70           68.4       1.316      2.516e+00
71           69.4       1.306      2.513e+00
72           70.4       1.296      2.513e+00
73           71.4       1.286      2.512e+00
74           72.4       1.276      2.513e+00
75           73.4       1.266      2.514e+00
76           74.4       1.256      2.513e+00
77           75.4       1.246      2.512e+00
78           76.4       1.236      2.512e+00
79           77.4       1.226      2.511e+00
80           78.4       1.216      2.509e+00
81           79.4       1.206      2.510e+00
82           80.4       1.196      2.511e+00
83           81.4       1.186      2.510e+00
84           82.4       1.176      2.509e+00
85           83.4       1.166      2.510e+00
86           84.4       1.156      2.510e+00
87           85.4       1.146      2.509e+00
88           86.4       1.136      2.509e+00
89           87.4       1.126      2.499e+00
90           88.4       1.116      2.449e+00
91           89.4       1.106      2.270e+00
92           90.4       1.096      2.178e+00
93           91.4       1.086      1.993e+00
94           92.4       1.076      1.887e+00
95           93.4       1.066      1.747e+00
96           94.4       1.056      1.505e+00
97           95.4       1.046      1.294e+00
98           96.4       1.036      1.110e+00
99           97.4       1.026      9.947e-01
100          98.4       1.016      8.647e-01
101          99.4       1.006      7.655e-01
102         100.4       0.996      6.581e-01
103         101.4       0.986      5.065e-01
104         102.4       0.976      4.370e-01
105         103.4       0.966      3.988e-01
106         104.4       0.956      2.832e-01
107         105.4       0.946      2.387e-01
108         106.4       0.936      2.314e-01
109         107.4       0.926      1.488e-01
110         108.4       0.916      1.241e-01
111         109.4       0.906      1.232e-01
112         110.4       0.896      1.037e-01
113         111.4       0.886      8.591e-02
114         112.4       0.876      9.892e-02
115         113.4       0.866      7.999e-02
116         114.4       0.856      5.759e-02
117         115.4       0.846      3.883e-02
118         116.4       0.836      2.680e-02
119         117.4       0.826      1.329e-02
120         118.4       0.816     -2.894e-04
121         119.6       0.804     -3.799e-03
122         120.6       0.794     -1.798e-02
123         122.4       0.776     -4.169e-02
124         123.4       0.766     -5.068e-02
125         124.4       0.756     -6.162e-02
126         125.4       0.746     -7.723e-02
127         126.4       0.736     -8.981e-02
128         127.4       0.726     -9.749e-02
129         128.4       0.716     -1.062e-01
130         129.4       0.706     -1.234e-01
131         130.4       0.696     -1.358e-01
132         131.4       0.686     -1.486e-01
133         132.4       0.676     -1.594e-01
134         133.4       0.666     -1.697e-01
135         134.4       0.656     -1.768e-01
136         135.4       0.646     -1.858e-01
137         136.4       0.636     -2.047e-01
138         137.4       0.626     -2.170e-01
139         138.4       0.616     -2.312e-01
140         139.4       0.606     -2.403e-01
141         140.4       0.596     -2.512e-01
142         141.4       0.586     -2.634e-01
143         142.4       0.576     -2.757e-01
144         143.4       0.566     -2.884e-01
145         144.4       0.556     -3.000e-01
146         145.4       0.546     -3.119e-01
147         146.4       0.536     -3.219e-01
148         147.4       0.526     -3.372e-01
149         148.4       0.516     -3.483e-01
150         149.4       0.506     -3.604e-01
151         150.4       0.496     -3.736e-01
152         151.4       0.486     -3.856e-01
153         152.4       0.476     -4.010e-01
154         153.4       0.466     -4.136e-01
155         154.4       0.456     -4.293e-01
156         155.4       0.446     -4.435e-01
157         156.4       0.436     -4.530e-01
158         157.4       0.426     -4.617e-01
159         158.4       0.416     -4.778e-01
160         159.4       0.406     -4.962e-01
161         160.4       0.396     -5.112e-01
162         161.4       0.386     -5.278e-01
163         162.4       0.376     -5.413e-01
164         163.4       0.366     -5.579e-01
165         164.4       0.356     -5.737e-01
166         165.4       0.346     -5.922e-01
167         166.4       0.336     -6.080e-01
168         167.4       0.326     -6.247e-01
169         168.4       0.316     -6.409e-01
170         169.4       0.306     -6.576e-01
171         170.4       0.296     -6.748e-01
172         171.4       0.286     -6.950e-01
173         172.4       0.276     -7.067e-01
174         173.4       0.266     -7.225e-01
175         174.4       0.256     -7.421e-01
176         175.4       0.246     -7.638e-01
177         176.4       0.236     -7.775e-01
178         177.4       0.226     -7.946e-01
179         178.4       0.216     -8.143e-01
180         179.4       0.206     -8.364e-01
181         180.4       0.196     -8.516e-01
182         181.4       0.186     -8.622e-01
183         182.4       0.176     -8.854e-01
184         183.4       0.166     -8.989e-01
185         184.4       0.156     -9.196e-01
186         185.4       0.146     -9.364e-01
187         186.4       0.136     -9.561e-01
188         187.4       0.126     -9.783e-01
189         188.4       0.116     -9.984e-01
190         189.4       0.106     -1.016e+00
191         190.4       0.096     -1.034e+00
192         191.4       0.086     -1.056e+00
193         192.4       0.076     -1.076e+00
194         193.4       0.066     -1.094e+00
195         194.4       0.056     -1.113e+00
196         195.4       0.046     -1.136e+00
197         196.4       0.036     -1.155e+00
198         197.4       0.026     -1.173e+00
199         198.4       0.016     -1.193e+00
200         199.4       0.006     -1.216e+00
201         200.4      -0.004     -1.239e+00
202         201.4      -0.014     -1.259e+00
203         202.4      -0.024     -1.279e+00
204         203.4      -0.034     -1.303e+00
205         204.4      -0.044     -1.327e+00
206         205.4      -0.054     -1.345e+00
207         206.4      -0.064     -1.367e+00
208         207.4      -0.074     -1.391e+00
209         208.4      -0.084     -1.418e+00
210         209.4      -0.094     -1.442e+00
211         210.5      -0.099     -1.452e+00
212         211.8      -0.095     -1.426e+00
213         212.8      -0.085     -1.427e+00
214         213.8      -0.075     -1.400e+00
215         214.8      -0.065     -1.374e+00
216         215.8      -0.055     -1.354e+00
217         216.8      -0.045     -1.337e+00
218         217.8      -0.035     -1.313e+00
219         218.8      -0.025     -1.290e+00
220         219.8      -0.015     -1.270e+00
221         220.8      -0.005     -1.254e+00
222         221.8      -0.000     -1.242e+00

