File............:   - APR,29.2017

System..........:  
Temperature.....:  unknown
Time............:  18:43:51-18:48:05
Scan mode.......:   10mV/s
Comment.........:  
                   
                   
                   
                   
Electr.area/sqcm:  
                    
Steady state current/voltage diagramm

Lines:   248
Columns: 3

Number    Time/s    Potential/V   Current/A 
1             0.0       2.047      2.582e+00
2             1.1       2.042      2.547e+00
3             1.1       2.042      2.547e+00
4             2.4       2.037      2.559e+00
5             3.4       2.027      2.575e+00
6             4.4       2.017      2.575e+00
7             5.4       2.007      2.574e+00
8             6.4       1.997      2.573e+00
9             7.4       1.987      2.571e+00
10            8.4       1.977      2.572e+00
11            9.4       1.967      2.570e+00
12           10.4       1.957      2.571e+00
13           11.4       1.947      2.569e+00
14           12.4       1.937      2.569e+00
15           13.4       1.927      2.568e+00
16           14.4       1.917      2.566e+00
17           15.4       1.907      2.566e+00
18           16.4       1.897      2.567e+00
19           17.4       1.887      2.563e+00
20           18.4       1.877      2.564e+00
21           19.4       1.867      2.563e+00
22           20.4       1.857      2.563e+00
23           21.4       1.847      2.561e+00
24           22.4       1.837      2.563e+00
25           23.4       1.827      2.561e+00
26           24.4       1.817      2.560e+00
27           25.4       1.807      2.559e+00
28           26.4       1.797      2.559e+00
29           27.4       1.787      2.556e+00
30           28.4       1.777      2.559e+00
31           29.4       1.767      2.559e+00
32           30.4       1.757      2.557e+00
33           31.4       1.747      2.555e+00
34           32.4       1.737      2.555e+00
35           33.4       1.727      2.555e+00
36           34.4       1.717      2.553e+00
37           35.4       1.707      2.553e+00
38           36.4       1.697      2.552e+00
39           37.4       1.687      2.553e+00
40           38.4       1.677      2.552e+00
41           39.4       1.667      2.552e+00
42           40.4       1.657      2.550e+00
43           41.4       1.647      2.551e+00
44           42.4       1.637      2.549e+00
45           43.4       1.627      2.550e+00
46           44.4       1.617      2.548e+00
47           45.4       1.607      2.548e+00
48           46.4       1.597      2.547e+00
49           47.4       1.587      2.546e+00
50           48.4       1.577      2.545e+00
51           49.4       1.567      2.545e+00
52           50.4       1.557      2.545e+00
53           51.4       1.547      2.545e+00
54           52.4       1.537      2.543e+00
55           53.4       1.527      2.543e+00
56           54.4       1.517      2.544e+00
57           55.4       1.507      2.542e+00
58           56.4       1.497      2.541e+00
59           57.4       1.487      2.542e+00
60           58.4       1.477      2.539e+00
61           59.4       1.467      2.540e+00
62           60.4       1.457      2.540e+00
63           61.4       1.447      2.538e+00
64           62.4       1.437      2.540e+00
65           63.4       1.427      2.539e+00
66           64.4       1.417      2.539e+00
67           65.4       1.407      2.538e+00
68           66.4       1.397      2.538e+00
69           67.4       1.387      2.538e+00
70           68.4       1.377      2.535e+00
71           69.4       1.367      2.536e+00
72           70.4       1.357      2.535e+00
73           71.4       1.347      2.536e+00
74           72.4       1.337      2.534e+00
75           73.4       1.327      2.534e+00
76           74.4       1.317      2.534e+00
77           75.4       1.307      2.533e+00
78           76.4       1.297      2.534e+00
79           77.4       1.287      2.533e+00
80           78.4       1.277      2.532e+00
81           79.4       1.267      2.533e+00
82           80.4       1.257      2.532e+00
83           81.4       1.247      2.531e+00
84           82.4       1.237      2.530e+00
85           83.4       1.227      2.531e+00
86           84.4       1.217      2.529e+00
87           85.4       1.207      2.529e+00
88           86.4       1.197      2.526e+00
89           87.4       1.187      2.367e+00
90           88.4       1.177      2.198e+00
91           89.4       1.167      2.227e+00
92           90.4       1.157      2.100e+00
93           91.4       1.147      2.000e+00
94           92.4       1.137      1.896e+00
95           93.4       1.127      1.850e+00
96           94.4       1.117      1.654e+00
97           95.4       1.107      1.421e+00
98           96.4       1.097      1.181e+00
99           97.4       1.087      1.039e+00
100          98.4       1.077      1.009e+00
101          99.4       1.067      8.651e-01
102         100.4       1.057      7.092e-01
103         101.4       1.047      6.270e-01
104         102.4       1.037      5.153e-01
105         103.4       1.027      4.333e-01
106         104.4       1.017      4.167e-01
107         105.4       1.007      4.168e-01
108         106.4       0.997      3.605e-01
109         107.4       0.987      3.126e-01
110         108.4       0.977      2.678e-01
111         109.4       0.967      1.911e-01
112         110.4       0.957      1.618e-01
113         111.4       0.947      1.396e-01
114         112.4       0.937      1.171e-01
115         113.4       0.927      8.869e-02
116         114.4       0.917      7.020e-02
117         115.4       0.907      3.806e-02
118         116.4       0.897     -4.052e-02
119         117.4       0.887     -5.446e-02
120         118.4       0.877     -6.871e-02
121         119.4       0.867     -8.431e-02
122         120.4       0.857     -9.276e-02
123         121.4       0.847     -1.174e-01
124         122.4       0.837     -1.294e-01
125         123.4       0.827     -1.452e-01
126         124.4       0.817     -1.613e-01
127         125.4       0.807     -1.749e-01
128         126.4       0.797     -1.916e-01
129         127.4       0.787     -2.089e-01
130         128.4       0.777     -2.239e-01
131         129.4       0.767     -2.370e-01
132         130.4       0.757     -2.499e-01
133         131.4       0.747     -2.651e-01
134         132.4       0.737     -2.874e-01
135         133.4       0.727     -3.015e-01
136         134.4       0.717     -3.136e-01
137         135.4       0.707     -3.366e-01
138         136.4       0.697     -3.520e-01
139         137.4       0.687     -3.663e-01
140         138.4       0.677     -3.833e-01
141         139.4       0.667     -3.999e-01
142         140.4       0.657     -4.155e-01
143         141.4       0.647     -4.319e-01
144         142.4       0.637     -4.467e-01
145         143.4       0.627     -4.631e-01
146         144.4       0.617     -4.811e-01
147         145.4       0.607     -4.993e-01
148         146.4       0.597     -5.198e-01
149         147.4       0.587     -5.361e-01
150         148.4       0.577     -5.553e-01
151         149.4       0.567     -5.688e-01
152         150.4       0.557     -5.863e-01
153         151.4       0.547     -6.080e-01
154         152.4       0.537     -6.275e-01
155         153.4       0.527     -6.464e-01
156         154.4       0.517     -6.640e-01
157         155.4       0.507     -6.816e-01
158         156.4       0.497     -7.014e-01
159         157.4       0.487     -7.217e-01
160         158.4       0.477     -7.405e-01
161         159.4       0.467     -7.588e-01
162         160.4       0.457     -7.779e-01
163         161.4       0.447     -7.985e-01
164         162.4       0.437     -8.165e-01
165         163.4       0.427     -8.373e-01
166         164.4       0.417     -8.563e-01
167         165.4       0.407     -8.749e-01
168         166.4       0.397     -8.971e-01
169         167.4       0.387     -9.168e-01
170         168.4       0.377     -9.370e-01
171         169.4       0.367     -9.583e-01
172         170.4       0.357     -9.778e-01
173         171.4       0.347     -1.000e+00
174         172.4       0.337     -1.021e+00
175         173.4       0.327     -1.042e+00
176         174.4       0.317     -1.061e+00
177         175.4       0.307     -1.085e+00
178         176.4       0.297     -1.105e+00
179         177.4       0.287     -1.129e+00
180         178.4       0.277     -1.149e+00
181         179.4       0.267     -1.168e+00
182         180.4       0.257     -1.195e+00
183         181.4       0.247     -1.217e+00
184         182.4       0.237     -1.240e+00
185         183.4       0.227     -1.264e+00
186         184.4       0.217     -1.286e+00
187         185.4       0.207     -1.309e+00
188         186.4       0.197     -1.334e+00
189         187.4       0.187     -1.360e+00
190         188.4       0.177     -1.383e+00
191         189.4       0.167     -1.407e+00
192         190.4       0.157     -1.432e+00
193         191.4       0.147     -1.455e+00
194         192.4       0.137     -1.480e+00
195         193.4       0.127     -1.507e+00
196         194.4       0.117     -1.535e+00
197         195.4       0.107     -1.563e+00
198         196.4       0.097     -1.589e+00
199         197.4       0.087     -1.616e+00
200         198.4       0.077     -1.646e+00
201         199.4       0.067     -1.674e+00
202         200.4       0.057     -1.702e+00
203         201.4       0.047     -1.731e+00
204         202.4       0.037     -1.760e+00
205         203.4       0.027     -1.788e+00
206         204.4       0.017     -1.817e+00
207         205.4       0.007     -1.852e+00
208         206.4      -0.003     -1.882e+00
209         207.4      -0.013     -1.910e+00
210         208.4      -0.023     -1.939e+00
211         209.4      -0.033     -1.971e+00
212         210.4      -0.043     -2.001e+00
213         211.4      -0.053     -2.033e+00
214         212.4      -0.063     -2.070e+00
215         213.4      -0.073     -2.100e+00
216         214.4      -0.083     -2.136e+00
217         215.4      -0.093     -2.166e+00
218         216.4      -0.103     -2.200e+00
219         217.4      -0.113     -2.238e+00
220         218.4      -0.123     -2.273e+00
221         219.4      -0.133     -2.310e+00
222         220.4      -0.143     -2.346e+00
223         221.4      -0.153     -2.383e+00
224         222.4      -0.163     -2.415e+00
225         223.4      -0.173     -2.456e+00
226         224.4      -0.183     -2.492e+00
227         225.4      -0.193     -2.534e+00
228         225.4      -0.193     -2.534e+00
229         226.7      -0.188     -2.493e+00
230         227.7      -0.178     -2.491e+00
231         228.7      -0.168     -2.460e+00
232         229.7      -0.158     -2.427e+00
233         230.7      -0.148     -2.395e+00
234         231.7      -0.138     -2.360e+00
235         232.7      -0.128     -2.322e+00
236         233.7      -0.118     -2.292e+00
237         234.7      -0.108     -2.263e+00
238         235.7      -0.098     -2.231e+00
239         236.7      -0.088     -2.203e+00
240         237.7      -0.078     -2.176e+00
241         238.7      -0.068     -2.148e+00
242         239.7      -0.058     -2.119e+00
243         240.7      -0.048     -2.090e+00
244         241.7      -0.038     -2.066e+00
245         242.7      -0.028     -2.041e+00
246         243.7      -0.018     -2.018e+00
247         244.7      -0.008     -1.995e+00
248         246.0      -0.002     -1.982e+00

